Time (s),Absorbance Run #6,Transmittance Run #6,Concentration (mol/L) Run #6,,Untitled.sp,,,Run #6,
0.000,0.491,32.255,0.491,,2022-11-09 15:22:19,,Analysis Wavelength,579.000 nm,
0.200,0.475,33.508,0.475,,Time,,slope (m),1.000,
0.400,0.503,31.437,0.503,,Absorbance/Transmittance Solution #6,,y-intercept (b),0,
0.600,0.468,34.038,0.468,,,,Sample Rate,5 Hz,
0.800,0.465,34.257,0.465,,,,Bandwidth,5.000 nm,
1.000,0.463,34.432,0.463
1.200,0.463,34.398,0.463
1.400,0.462,34.551,0.462
1.600,0.460,34.685,0.460
1.800,0.458,34.872,0.458
2.000,0.458,34.839,0.458
2.200,0.458,34.819,0.458
2.400,0.456,34.975,0.456
2.600,0.455,35.060,0.455
2.800,0.453,35.213,0.453
3.000,0.451,35.390,0.451
3.200,0.452,35.333,0.452
3.400,0.449,35.553,0.449
3.600,0.448,35.619,0.448
3.800,0.448,35.657,0.448
4.000,0.448,35.662,0.448
4.200,0.446,35.814,0.446
4.400,0.445,35.908,0.445
4.600,0.443,36.080,0.443
4.800,0.442,36.179,0.442
5.000,0.441,36.218,0.441
5.200,0.442,36.153,0.442
5.400,0.440,36.341,0.440
5.600,0.438,36.470,0.438
5.800,0.437,36.527,0.437
6.000,0.438,36.489,0.438
6.200,0.434,36.776,0.434
6.400,0.434,36.793,0.434
6.600,0.431,37.060,0.431
6.800,0.429,37.212,0.429
7.000,0.430,37.190,0.430
7.200,0.429,37.232,0.429
7.400,0.429,37.272,0.429
7.600,0.428,37.328,0.428
7.800,0.425,37.591,0.425
8.000,0.425,37.588,0.425
8.200,0.425,37.596,0.425
8.400,0.422,37.888,0.422
8.600,0.420,37.994,0.420
8.800,0.419,38.113,0.419
9.000,0.419,38.123,0.419
9.200,0.418,38.182,0.418
9.400,0.418,38.165,0.418
9.600,0.416,38.351,0.416
9.800,0.417,38.300,0.417
10.000,0.414,38.540,0.414
10.200,0.413,38.607,0.413
10.400,0.412,38.738,0.412
10.600,0.412,38.734,0.412
10.800,0.410,38.921,0.410
11.000,0.411,38.847,0.411
11.200,0.408,39.112,0.408
11.400,0.407,39.133,0.407
11.600,0.407,39.210,0.407
11.800,0.405,39.327,0.405
12.000,0.406,39.288,0.406
12.200,0.404,39.416,0.404
12.400,0.403,39.569,0.403
12.600,0.401,39.760,0.401
12.800,0.400,39.807,0.400
13.000,0.400,39.808,0.400
13.200,0.399,39.905,0.399
13.400,0.399,39.921,0.399
13.600,0.396,40.153,0.396
13.800,0.395,40.271,0.395
14.000,0.394,40.372,0.394
14.200,0.393,40.452,0.393
14.400,0.391,40.645,0.391
14.600,0.391,40.685,0.391
14.800,0.389,40.855,0.389
15.000,0.388,40.919,0.388
15.200,0.388,40.881,0.388
15.400,0.386,41.080,0.386
15.600,0.386,41.122,0.386
15.800,0.384,41.305,0.384
16.000,0.384,41.289,0.384
16.200,0.382,41.496,0.382
16.400,0.381,41.613,0.381
16.600,0.380,41.674,0.380
16.800,0.380,41.712,0.380
17.000,0.378,41.886,0.378
17.200,0.377,41.947,0.377
17.400,0.377,42.007,0.377
17.600,0.376,42.068,0.376
17.800,0.375,42.135,0.375
18.000,0.373,42.371,0.373
18.200,0.373,42.349,0.373
18.400,0.372,42.469,0.372
18.600,0.370,42.708,0.370
18.800,0.369,42.766,0.369
19.000,0.367,42.931,0.367
19.200,0.366,43.037,0.366
19.400,0.367,42.980,0.367
19.600,0.364,43.208,0.364
19.800,0.363,43.319,0.363
20.000,0.363,43.392,0.363
20.200,0.362,43.446,0.362
20.400,0.361,43.523,0.361
20.600,0.360,43.625,0.360
20.800,0.360,43.648,0.360
21.000,0.358,43.899,0.358
21.200,0.358,43.894,0.358
21.400,0.357,43.944,0.357
21.600,0.353,44.335,0.353
21.800,0.354,44.240,0.354
22.000,0.354,44.306,0.354
22.200,0.352,44.466,0.352
22.400,0.352,44.502,0.352
22.600,0.352,44.445,0.352
22.800,0.349,44.794,0.349
23.000,0.349,44.752,0.349
23.200,0.348,44.823,0.348
23.400,0.348,44.905,0.348
23.600,0.347,44.957,0.347
23.800,0.345,45.168,0.345
24.000,0.344,45.276,0.344
24.200,0.344,45.270,0.344
24.400,0.342,45.477,0.342
24.600,0.343,45.404,0.343
24.800,0.341,45.655,0.341
25.000,0.340,45.684,0.340
25.200,0.339,45.781,0.339
25.400,0.338,45.906,0.338
25.600,0.337,45.991,0.337
25.800,0.337,46.027,0.337
26.000,0.336,46.098,0.336
26.200,0.335,46.188,0.335
26.400,0.335,46.291,0.335
26.600,0.334,46.333,0.334
26.800,0.332,46.523,0.332
27.000,0.330,46.821,0.330
27.200,0.333,46.476,0.333
27.400,0.333,46.493,0.333
27.600,0.330,46.785,0.330
27.800,0.331,46.651,0.331
28.000,0.333,46.486,0.333
28.200,0.333,46.503,0.333
28.400,0.330,46.772,0.330
28.600,0.329,46.893,0.329
28.800,0.326,47.184,0.326
29.000,0.326,47.241,0.326
29.200,0.322,47.622,0.322
29.400,0.322,47.601,0.322
29.600,0.320,47.836,0.320
29.800,0.319,48.006,0.319
30.000,0.317,48.214,0.317
30.200,0.317,48.184,0.317
30.400,0.315,48.416,0.315
30.600,0.319,48.009,0.319
30.800,0.316,48.281,0.316
31.000,0.317,48.225,0.317
31.200,0.320,47.880,0.320
31.400,0.316,48.271,0.316
31.600,0.315,48.406,0.315
31.800,0.313,48.667,0.313
32.000,0.311,48.872,0.311
32.200,0.313,48.685,0.313
32.400,0.310,49.002,0.310
32.600,0.310,48.996,0.310
32.800,0.310,49.028,0.310
33.000,0.307,49.262,0.307
33.200,0.307,49.358,0.307
33.400,0.308,49.238,0.308
33.600,0.306,49.448,0.306
33.800,0.304,49.650,0.304
34.000,0.304,49.693,0.304
34.200,0.303,49.721,0.303
34.400,0.303,49.746,0.303
34.600,0.302,49.832,0.302
34.800,0.301,49.957,0.301
35.000,0.300,50.121,0.300
35.200,0.299,50.262,0.299
35.400,0.298,50.295,0.298
35.600,0.296,50.600,0.296
35.800,0.298,50.396,0.298
36.000,0.297,50.438,0.297
36.200,0.297,50.505,0.297
36.400,0.294,50.868,0.294
36.600,0.294,50.770,0.294
36.800,0.292,51.043,0.292
37.000,0.293,50.965,0.293
37.200,0.291,51.127,0.291
37.400,0.291,51.136,0.291
37.600,0.290,51.303,0.290
37.800,0.290,51.272,0.290
38.000,0.290,51.262,0.290
38.200,0.288,51.466,0.288
38.400,0.287,51.677,0.287
38.600,0.287,51.637,0.287
38.800,0.287,51.654,0.287
39.000,0.287,51.693,0.287
39.200,0.286,51.771,0.286
39.400,0.285,51.890,0.285
39.600,0.284,51.948,0.284
39.800,0.284,51.976,0.284
40.000,0.282,52.194,0.282
40.200,0.282,52.259,0.282
40.400,0.280,52.439,0.280
40.600,0.279,52.625,0.279
40.800,0.280,52.482,0.280
41.000,0.278,52.772,0.278
41.200,0.278,52.732,0.278
41.400,0.277,52.900,0.277
41.600,0.277,52.791,0.277
41.800,0.277,52.815,0.277
42.000,0.276,52.951,0.276
42.200,0.274,53.272,0.274
42.400,0.274,53.249,0.274
42.600,0.274,53.255,0.274
42.800,0.274,53.219,0.274
43.000,0.273,53.347,0.273
43.200,0.271,53.614,0.271
43.400,0.271,53.594,0.271
43.600,0.270,53.692,0.270
43.800,0.271,53.623,0.271
44.000,0.269,53.833,0.269
44.200,0.267,54.035,0.267
44.400,0.268,53.913,0.268
44.600,0.267,54.090,0.267
44.800,0.268,54.001,0.268
45.000,0.265,54.299,0.265
45.200,0.265,54.326,0.265
45.400,0.264,54.483,0.264
45.600,0.263,54.614,0.263
45.800,0.262,54.688,0.262
46.000,0.264,54.466,0.264
46.200,0.262,54.647,0.262
46.400,0.262,54.649,0.262
46.600,0.262,54.749,0.262
46.800,0.259,55.077,0.259
47.000,0.260,54.892,0.260
47.200,0.259,55.120,0.259
47.400,0.258,55.241,0.258
47.600,0.259,55.103,0.259
47.800,0.257,55.314,0.257
48.000,0.257,55.354,0.257
48.200,0.257,55.288,0.257
48.400,0.257,55.349,0.257
48.600,0.255,55.649,0.255
48.800,0.254,55.685,0.254
49.000,0.253,55.814,0.253
49.200,0.254,55.769,0.254
49.400,0.252,55.966,0.252
49.600,0.253,55.907,0.253
49.800,0.251,56.095,0.251
50.000,0.251,56.110,0.251
50.200,0.252,55.964,0.252
50.400,0.252,56.029,0.252
50.600,0.249,56.312,0.249
50.800,0.250,56.255,0.250
51.000,0.249,56.355,0.249
51.200,0.246,56.735,0.246
51.400,0.246,56.710,0.246
51.600,0.246,56.758,0.246
51.800,0.244,57.004,0.244
52.000,0.244,56.972,0.244
52.200,0.244,56.952,0.244
52.400,0.243,57.145,0.243
52.600,0.244,57.007,0.244
52.800,0.243,57.153,0.243
53.000,0.243,57.086,0.243
53.200,0.243,57.160,0.243
53.400,0.240,57.512,0.240
53.600,0.242,57.306,0.242
53.800,0.238,57.749,0.238
54.000,0.239,57.670,0.239
54.200,0.238,57.814,0.238
54.400,0.239,57.628,0.239
54.600,0.240,57.493,0.240
54.800,0.236,58.092,0.236
55.000,0.237,57.907,0.237
55.200,0.237,57.930,0.237
55.400,0.235,58.179,0.235
55.600,0.236,58.140,0.236
55.800,0.236,58.059,0.236
56.000,0.236,58.055,0.236
56.200,0.235,58.223,0.235
56.400,0.234,58.318,0.234
56.600,0.232,58.669,0.232
56.800,0.232,58.576,0.232
57.000,0.232,58.626,0.232
57.200,0.231,58.790,0.231
57.400,0.229,59.025,0.229
57.600,0.229,59.004,0.229
57.800,0.228,59.214,0.228
58.000,0.227,59.314,0.227
58.200,0.229,59.051,0.229
58.400,0.227,59.267,0.227
58.600,0.226,59.381,0.226
58.800,0.226,59.419,0.226
59.000,0.226,59.467,0.226
59.200,0.225,59.632,0.225
59.400,0.223,59.790,0.223
59.600,0.223,59.856,0.223
59.800,0.223,59.834,0.223
60.000,0.222,59.929,0.222
60.200,0.223,59.902,0.223
60.400,0.223,59.871,0.223
60.600,0.222,60.037,0.222
60.800,0.222,59.944,0.222
61.000,0.220,60.204,0.220
61.200,0.220,60.304,0.220
61.400,0.220,60.282,0.220
61.600,0.220,60.324,0.220
61.800,0.218,60.550,0.218
62.000,0.219,60.380,0.219
62.200,0.219,60.453,0.219
62.400,0.218,60.507,0.218
62.600,0.217,60.677,0.217
62.800,0.218,60.535,0.218
63.000,0.216,60.853,0.216
63.200,0.216,60.752,0.216
63.400,0.216,60.849,0.216
63.600,0.215,60.924,0.215
63.800,0.216,60.771,0.216
64.000,0.214,61.055,0.214
64.200,0.214,61.037,0.214
64.400,0.213,61.242,0.213
64.600,0.214,61.146,0.214
64.800,0.212,61.411,0.212
65.000,0.213,61.267,0.213
65.200,0.211,61.526,0.211
65.400,0.210,61.724,0.210
65.600,0.209,61.745,0.209
65.800,0.209,61.825,0.209
66.000,0.210,61.680,0.210
66.200,0.209,61.814,0.209
66.400,0.207,62.135,0.207
66.600,0.207,62.088,0.207
66.800,0.207,62.091,0.207
67.000,0.208,62.004,0.208
67.200,0.208,61.934,0.208
67.400,0.207,62.150,0.207
67.600,0.205,62.334,0.205
67.800,0.205,62.362,0.205
68.000,0.205,62.401,0.205
68.200,0.204,62.517,0.204
68.400,0.204,62.538,0.204
68.600,0.204,62.559,0.204
68.800,0.204,62.576,0.204
69.000,0.204,62.572,0.204
69.200,0.202,62.763,0.202
69.400,0.201,62.935,0.201
69.600,0.202,62.866,0.202
69.800,0.203,62.720,0.203
70.000,0.201,62.945,0.201
70.200,0.200,63.164,0.200
70.400,0.199,63.267,0.199
70.600,0.200,63.129,0.200
70.800,0.198,63.358,0.198
71.000,0.199,63.306,0.199
71.200,0.199,63.199,0.199
71.400,0.198,63.432,0.198
71.600,0.196,63.711,0.196
71.800,0.198,63.444,0.198
72.000,0.198,63.333,0.198
72.200,0.198,63.338,0.198
72.400,0.197,63.544,0.197
72.600,0.198,63.422,0.198
72.800,0.197,63.602,0.197
73.000,0.198,63.338,0.198
73.200,0.197,63.482,0.197
73.400,0.197,63.517,0.197
73.600,0.195,63.776,0.195
73.800,0.196,63.647,0.196
74.000,0.196,63.641,0.196
74.200,0.196,63.645,0.196
74.400,0.194,63.924,0.194
74.600,0.195,63.796,0.195
74.800,0.193,64.060,0.193
75.000,0.193,64.101,0.193
75.200,0.194,64.039,0.194
75.400,0.194,63.956,0.194
75.600,0.193,64.153,0.193
75.800,0.191,64.389,0.191
76.000,0.190,64.583,0.190
76.200,0.189,64.681,0.189
76.400,0.190,64.585,0.190
76.600,0.190,64.622,0.190
76.800,0.188,64.808,0.188
77.000,0.188,64.895,0.188
77.200,0.189,64.718,0.189
77.400,0.188,64.799,0.188
77.600,0.188,64.833,0.188
77.800,0.187,65.022,0.187
78.000,0.186,65.224,0.186
78.200,0.186,65.154,0.186
78.400,0.185,65.308,0.185
78.600,0.185,65.268,0.185
78.800,0.185,65.353,0.185
79.000,0.184,65.521,0.184
79.200,0.184,65.527,0.184
79.400,0.184,65.473,0.184
79.600,0.183,65.604,0.183
79.800,0.182,65.768,0.182
80.000,0.183,65.645,0.183
80.200,0.183,65.639,0.183
80.400,0.182,65.716,0.182
80.600,0.182,65.719,0.182
80.800,0.182,65.743,0.182
81.000,0.181,65.936,0.181
81.200,0.181,65.870,0.181
81.400,0.181,65.992,0.181
81.600,0.181,65.917,0.181
81.800,0.181,65.914,0.181
82.000,0.181,65.940,0.181
82.200,0.179,66.251,0.179
82.400,0.180,66.106,0.180
82.600,0.179,66.250,0.179
82.800,0.179,66.275,0.179
83.000,0.178,66.374,0.178
83.200,0.179,66.200,0.179
83.400,0.177,66.466,0.177
83.600,0.177,66.599,0.177
83.800,0.176,66.676,0.176
84.000,0.175,66.801,0.175
84.200,0.176,66.636,0.176
84.400,0.175,66.766,0.175
84.600,0.174,66.925,0.174
84.800,0.174,66.970,0.174
85.000,0.174,67.043,0.174
85.200,0.173,67.076,0.173
85.400,0.174,67.024,0.174
85.600,0.173,67.138,0.173
85.800,0.174,67.059,0.174
86.000,0.173,67.102,0.173
86.200,0.174,66.979,0.174
86.400,0.174,67.007,0.174
86.600,0.173,67.111,0.173
86.800,0.171,67.469,0.171
87.000,0.173,67.186,0.173
87.200,0.172,67.325,0.172
87.400,0.170,67.541,0.170
87.600,0.170,67.577,0.170
87.800,0.170,67.664,0.170
88.000,0.171,67.515,0.171
88.200,0.170,67.659,0.170
88.400,0.170,67.659,0.170
88.600,0.169,67.723,0.169
88.800,0.170,67.653,0.170
89.000,0.169,67.722,0.169
89.200,0.169,67.696,0.169
89.400,0.169,67.818,0.169
89.600,0.169,67.826,0.169
89.800,0.170,67.657,0.170
90.000,0.168,67.907,0.168
90.200,0.167,68.069,0.167
90.400,0.168,67.947,0.168
90.600,0.167,68.039,0.167
90.800,0.169,67.801,0.169
91.000,0.166,68.170,0.166
91.200,0.168,67.886,0.168
91.400,0.167,68.069,0.167
91.600,0.168,67.940,0.168
91.800,0.165,68.344,0.165
92.000,0.166,68.250,0.166
92.200,0.167,68.145,0.167
92.400,0.166,68.295,0.166
92.600,0.165,68.453,0.165
92.800,0.164,68.538,0.164
93.000,0.164,68.590,0.164
93.200,0.163,68.753,0.163
93.400,0.162,68.809,0.162
93.600,0.164,68.614,0.164
93.800,0.162,68.816,0.162
94.000,0.163,68.786,0.163
94.200,0.162,68.875,0.162
94.400,0.161,69.004,0.161
94.600,0.162,68.798,0.162
94.800,0.161,69.045,0.161
95.000,0.161,69.079,0.161
95.200,0.160,69.116,0.160
95.400,0.160,69.209,0.160
95.600,0.160,69.216,0.160
95.800,0.159,69.300,0.159
96.000,0.160,69.189,0.160
96.200,0.160,69.228,0.160
96.400,0.158,69.432,0.158
96.600,0.159,69.422,0.159
96.800,0.159,69.361,0.159
97.000,0.159,69.335,0.159
97.200,0.160,69.106,0.160
97.400,0.158,69.515,0.158
97.600,0.157,69.623,0.157
97.800,0.156,69.773,0.156
98.000,0.157,69.709,0.157
98.200,0.157,69.723,0.157
98.400,0.156,69.808,0.156
98.600,0.156,69.842,0.156
98.800,0.156,69.801,0.156
99.000,0.156,69.857,0.156
99.200,0.155,70.025,0.155
99.400,0.155,69.998,0.155
99.600,0.154,70.124,0.154
99.800,0.154,70.146,0.154
100.000,0.154,70.113,0.154
100.200,0.154,70.226,0.154
100.400,0.153,70.313,0.153
100.600,0.155,70.016,0.155
100.800,0.153,70.320,0.153
101.000,0.155,69.940,0.155
101.200,0.156,69.765,0.156
101.400,0.154,70.191,0.154
101.600,0.155,70.046,0.155
101.800,0.155,70.036,0.155
102.000,0.153,70.246,0.153
102.200,0.153,70.254,0.153
102.400,0.153,70.255,0.153
102.600,0.152,70.441,0.152
102.800,0.151,70.665,0.151
103.000,0.151,70.577,0.151
103.200,0.151,70.659,0.151
103.400,0.151,70.672,0.151
103.600,0.151,70.655,0.151
103.800,0.150,70.784,0.150
104.000,0.150,70.752,0.150
104.200,0.150,70.843,0.150
104.400,0.148,71.063,0.148
104.600,0.149,70.924,0.149
104.800,0.149,70.962,0.149
105.000,0.149,70.935,0.149
105.200,0.149,71.000,0.149
105.400,0.148,71.124,0.148
105.600,0.149,71.039,0.149
105.800,0.147,71.342,0.147
106.000,0.148,71.109,0.148
106.200,0.147,71.214,0.147
106.400,0.148,71.086,0.148
106.600,0.148,71.108,0.148
106.800,0.148,71.188,0.148
107.000,0.147,71.326,0.147
107.200,0.148,71.132,0.148
107.400,0.148,71.122,0.148
107.600,0.148,71.162,0.148
107.800,0.146,71.468,0.146
108.000,0.145,71.586,0.145
108.200,0.145,71.675,0.145
108.400,0.146,71.519,0.146
108.600,0.146,71.532,0.146
108.800,0.146,71.508,0.146
109.000,0.145,71.602,0.145
109.200,0.146,71.523,0.146
109.400,0.145,71.690,0.145
109.600,0.145,71.684,0.145
109.800,0.145,71.674,0.145
110.000,0.145,71.652,0.145
110.200,0.145,71.627,0.145
110.400,0.145,71.567,0.145
110.600,0.145,71.556,0.145
110.800,0.145,71.670,0.145
111.000,0.144,71.794,0.144
111.200,0.143,71.951,0.143
111.400,0.143,71.878,0.143
111.600,0.144,71.736,0.144
111.800,0.144,71.764,0.144
112.000,0.143,71.935,0.143
112.200,0.144,71.793,0.144
112.400,0.143,71.928,0.143
112.600,0.144,71.721,0.144
112.800,0.143,71.918,0.143
113.000,0.142,72.134,0.142
113.200,0.141,72.251,0.141
113.400,0.141,72.265,0.141
113.600,0.141,72.269,0.141
113.800,0.141,72.230,0.141
114.000,0.141,72.329,0.141
114.200,0.141,72.317,0.141
114.400,0.142,72.193,0.142
114.600,0.140,72.406,0.140
114.800,0.140,72.471,0.140
115.000,0.140,72.382,0.140
115.200,0.141,72.282,0.141
115.400,0.140,72.387,0.140
115.600,0.140,72.486,0.140
115.800,0.139,72.574,0.139
116.000,0.139,72.533,0.139
116.200,0.139,72.647,0.139
116.400,0.138,72.715,0.138
116.600,0.139,72.640,0.139
116.800,0.138,72.702,0.138
117.000,0.138,72.773,0.138
117.200,0.138,72.759,0.138
117.400,0.138,72.764,0.138
117.600,0.139,72.619,0.139
117.800,0.138,72.709,0.138
118.000,0.137,72.913,0.137
118.200,0.137,72.965,0.137
118.400,0.138,72.765,0.138
118.600,0.137,72.895,0.137
118.800,0.138,72.797,0.138
119.000,0.138,72.860,0.138
119.200,0.137,73.004,0.137
119.400,0.136,73.069,0.136
119.600,0.137,73.019,0.137
119.800,0.137,73.014,0.137
120.000,0.135,73.232,0.135
120.200,0.136,73.059,0.136
120.400,0.135,73.251,0.135
120.600,0.137,73.015,0.137
120.800,0.135,73.232,0.135
121.000,0.134,73.418,0.134
121.200,0.135,73.206,0.135
121.400,0.134,73.506,0.134
121.600,0.133,73.548,0.133
121.800,0.135,73.334,0.135
122.000,0.134,73.375,0.134
122.200,0.135,73.320,0.135
122.400,0.135,73.262,0.135
122.600,0.135,73.339,0.135
122.800,0.134,73.387,0.134
123.000,0.135,73.327,0.135
123.200,0.134,73.498,0.134
123.400,0.132,73.713,0.132
123.600,0.132,73.729,0.132
123.800,0.132,73.753,0.132
124.000,0.131,73.905,0.131
124.200,0.133,73.575,0.133
124.400,0.133,73.627,0.133
124.600,0.132,73.837,0.132
124.800,0.132,73.725,0.132
125.000,0.132,73.722,0.132
125.200,0.132,73.802,0.132
125.400,0.131,73.929,0.131
125.600,0.131,73.962,0.131
125.800,0.131,73.884,0.131
126.000,0.133,73.654,0.133
126.200,0.131,73.878,0.131
126.400,0.131,73.898,0.131
126.600,0.132,73.825,0.132
126.800,0.131,73.976,0.131
127.000,0.131,74.037,0.131
127.200,0.131,73.908,0.131
127.400,0.132,73.799,0.132
127.600,0.131,73.951,0.131
127.800,0.130,74.184,0.130
128.000,0.131,73.984,0.131
128.200,0.130,74.164,0.130
128.400,0.130,74.163,0.130
128.600,0.130,74.151,0.130
128.800,0.129,74.285,0.129
129.000,0.129,74.232,0.129
129.200,0.129,74.382,0.129
129.400,0.130,74.150,0.130
129.600,0.129,74.346,0.129
129.800,0.129,74.384,0.129
130.000,0.127,74.633,0.127
130.200,0.130,74.199,0.130
130.400,0.127,74.634,0.127
130.600,0.129,74.375,0.129
130.800,0.128,74.401,0.128
131.000,0.127,74.587,0.127
131.200,0.128,74.531,0.128
131.400,0.127,74.663,0.127
131.600,0.127,74.611,0.127
131.800,0.128,74.448,0.128
132.000,0.126,74.761,0.126
132.200,0.128,74.511,0.128
132.400,0.126,74.732,0.126
132.600,0.125,74.951,0.125
132.800,0.126,74.823,0.126
133.000,0.127,74.668,0.127
133.200,0.126,74.789,0.126
133.400,0.127,74.683,0.127
133.600,0.127,74.606,0.127
133.800,0.126,74.903,0.126
134.000,0.126,74.832,0.126
134.200,0.125,75.036,0.125
134.400,0.126,74.868,0.126
134.600,0.126,74.802,0.126
134.800,0.126,74.868,0.126
135.000,0.125,75.009,0.125
135.200,0.125,74.950,0.125
135.400,0.125,74.955,0.125
135.600,0.125,75.054,0.125
135.800,0.125,74.916,0.125
136.000,0.125,75.066,0.125
136.200,0.125,75.062,0.125
136.400,0.124,75.185,0.124
136.600,0.124,75.128,0.124
136.800,0.124,75.216,0.124
137.000,0.124,75.183,0.124
137.200,0.124,75.145,0.124
137.400,0.124,75.226,0.124
137.600,0.125,74.989,0.125
137.800,0.124,75.227,0.124
138.000,0.123,75.266,0.123
138.200,0.124,75.239,0.124
138.400,0.122,75.474,0.122
138.600,0.123,75.329,0.123
138.800,0.124,75.243,0.124
139.000,0.123,75.412,0.123
139.200,0.122,75.454,0.122
139.400,0.123,75.376,0.123
139.600,0.123,75.409,0.123
139.800,0.122,75.486,0.122
140.000,0.121,75.635,0.121
140.200,0.121,75.677,0.121
140.400,0.122,75.470,0.122
140.600,0.123,75.375,0.123
140.800,0.123,75.299,0.123
141.000,0.123,75.340,0.123
141.200,0.122,75.497,0.122
141.400,0.123,75.312,0.123
141.600,0.124,75.193,0.124
141.800,0.125,75.074,0.125
142.000,0.125,74.948,0.125
142.200,0.126,74.846,0.126
142.400,0.123,75.263,0.123
142.600,0.124,75.147,0.124
142.800,0.125,75.008,0.125
143.000,0.123,75.345,0.123
143.200,0.123,75.409,0.123
143.400,0.123,75.335,0.123
143.600,0.123,75.320,0.123
143.800,0.123,75.418,0.123
144.000,0.122,75.534,0.122
144.200,0.122,75.502,0.122
144.400,0.122,75.461,0.122
144.600,0.122,75.533,0.122
144.800,0.121,75.681,0.121
145.000,0.120,75.797,0.120
145.200,0.120,75.882,0.120
145.400,0.120,75.794,0.120
145.600,0.121,75.721,0.121
145.800,0.121,75.768,0.121
146.000,0.120,75.887,0.120
146.200,0.121,75.668,0.121
146.400,0.120,75.834,0.120
146.600,0.121,75.737,0.121
146.800,0.120,75.872,0.120
147.000,0.119,76.004,0.119
147.200,0.118,76.200,0.118
147.400,0.118,76.234,0.118
147.600,0.118,76.248,0.118
147.800,0.119,76.077,0.119
148.000,0.119,76.062,0.119
148.200,0.117,76.300,0.117
148.400,0.118,76.172,0.118
148.600,0.118,76.167,0.118
148.800,0.118,76.124,0.118
149.000,0.119,75.997,0.119
149.200,0.118,76.214,0.118
149.400,0.118,76.273,0.118
149.600,0.118,76.237,0.118
149.800,0.117,76.382,0.117
150.000,0.118,76.278,0.118
150.200,0.118,76.186,0.118
150.400,0.118,76.289,0.118
150.600,0.116,76.497,0.116
150.800,0.117,76.382,0.117
151.000,0.118,76.251,0.118
151.200,0.116,76.549,0.116
151.400,0.118,76.288,0.118
151.600,0.117,76.393,0.117
151.800,0.116,76.489,0.116
152.000,0.116,76.545,0.116
152.200,0.117,76.314,0.117
152.400,0.116,76.647,0.116
152.600,0.117,76.453,0.117
152.800,0.116,76.558,0.116
153.000,0.117,76.407,0.117
153.200,0.117,76.439,0.117
153.400,0.116,76.574,0.116
153.600,0.117,76.464,0.117
153.800,0.116,76.492,0.116
154.000,0.117,76.392,0.117
154.200,0.117,76.458,0.117
154.400,0.117,76.410,0.117
154.600,0.119,76.108,0.119
154.800,0.117,76.434,0.117
155.000,0.116,76.481,0.116
155.200,0.115,76.753,0.115
155.400,0.117,76.359,0.117
155.600,0.115,76.732,0.115
155.800,0.116,76.622,0.116
156.000,0.116,76.574,0.116
156.200,0.114,76.950,0.114
156.400,0.116,76.595,0.116
156.600,0.115,76.704,0.115
156.800,0.115,76.685,0.115
157.000,0.116,76.644,0.116
157.200,0.115,76.764,0.115
157.400,0.114,76.985,0.114
157.600,0.115,76.812,0.115
157.800,0.114,76.870,0.114
158.000,0.115,76.690,0.115
158.200,0.115,76.662,0.115
158.400,0.115,76.651,0.115
158.600,0.113,77.092,0.113
158.800,0.114,76.893,0.114
159.000,0.115,76.800,0.115
159.200,0.113,77.070,0.113
159.400,0.113,77.125,0.113
159.600,0.115,76.720,0.115
159.800,0.114,76.954,0.114
160.000,0.114,76.999,0.114
160.200,0.113,77.020,0.113
160.400,0.112,77.194,0.112
160.600,0.114,76.980,0.114
160.800,0.114,76.966,0.114
161.000,0.113,77.082,0.113
161.200,0.114,76.989,0.114
161.400,0.114,76.904,0.114
161.600,0.114,76.985,0.114
161.800,0.114,76.864,0.114
162.000,0.114,76.853,0.114
162.200,0.112,77.314,0.112
162.400,0.113,77.099,0.113
162.600,0.112,77.277,0.112
162.800,0.113,77.016,0.113
163.000,0.113,77.153,0.113
163.200,0.112,77.225,0.112
163.400,0.113,77.149,0.113
163.600,0.113,77.163,0.113
163.800,0.112,77.307,0.112
164.000,0.112,77.267,0.112
164.200,0.112,77.297,0.112
164.400,0.111,77.488,0.111
164.600,0.112,77.257,0.112
164.800,0.111,77.403,0.111
165.000,0.112,77.214,0.112
165.200,0.112,77.193,0.112
165.400,0.111,77.492,0.111
165.600,0.112,77.240,0.112
165.800,0.113,77.107,0.113
166.000,0.112,77.198,0.112
166.200,0.112,77.263,0.112
166.400,0.112,77.257,0.112
166.600,0.112,77.244,0.112
166.800,0.111,77.378,0.111
167.000,0.111,77.376,0.111
167.200,0.111,77.444,0.111
167.400,0.111,77.418,0.111
167.600,0.112,77.279,0.112
167.800,0.111,77.397,0.111
168.000,0.111,77.472,0.111
168.200,0.111,77.481,0.111
168.400,0.111,77.530,0.111
168.600,0.111,77.475,0.111
168.800,0.110,77.618,0.110
169.000,0.109,77.732,0.109
169.200,0.109,77.719,0.109
169.400,0.112,77.200,0.112
169.600,0.111,77.480,0.111
169.800,0.113,77.008,0.113
170.000,0.115,76.789,0.115
170.200,0.111,77.394,0.111
170.400,0.110,77.581,0.110
170.600,0.111,77.448,0.111
170.800,0.111,77.530,0.111
171.000,0.111,77.412,0.111
171.200,0.112,77.248,0.112
171.400,0.111,77.450,0.111
171.600,0.110,77.702,0.110
171.800,0.110,77.613,0.110
172.000,0.110,77.541,0.110
172.200,0.111,77.500,0.111
172.400,0.111,77.528,0.111
172.600,0.110,77.686,0.110
172.800,0.110,77.712,0.110
173.000,0.111,77.535,0.111
173.200,0.110,77.662,0.110
173.400,0.111,77.450,0.111
173.600,0.109,77.751,0.109
173.800,0.110,77.680,0.110
174.000,0.110,77.564,0.110
174.200,0.110,77.627,0.110
174.400,0.109,77.807,0.109
174.600,0.109,77.893,0.109
174.800,0.109,77.791,0.109
175.000,0.110,77.694,0.110
175.200,0.108,77.982,0.108
175.400,0.109,77.885,0.109
175.600,0.109,77.810,0.109
175.800,0.109,77.717,0.109
176.000,0.110,77.706,0.110
176.200,0.108,77.897,0.108
176.400,0.109,77.742,0.109
176.600,0.108,78.012,0.108
176.800,0.110,77.699,0.110
177.000,0.109,77.736,0.109
177.200,0.108,77.958,0.108
177.400,0.108,77.984,0.108
177.600,0.108,78.036,0.108
177.800,0.108,77.940,0.108
178.000,0.108,77.987,0.108
178.200,0.108,77.951,0.108
178.400,0.109,77.831,0.109
178.600,0.108,78.010,0.108
178.800,0.109,77.869,0.109
179.000,0.108,78.031,0.108
179.200,0.107,78.085,0.107
179.400,0.107,78.165,0.107
179.600,0.108,77.906,0.108
179.800,0.108,78.011,0.108
180.000,0.107,78.108,0.107
180.200,0.107,78.192,0.107
180.400,0.108,77.992,0.108
180.600,0.108,78.025,0.108
180.800,0.107,78.148,0.107
181.000,0.109,77.798,0.109
181.200,0.108,77.894,0.108
181.400,0.108,77.947,0.108
181.600,0.107,78.110,0.107
181.800,0.107,78.122,0.107
182.000,0.107,78.089,0.107
182.200,0.106,78.274,0.106
182.400,0.107,78.086,0.107
182.600,0.109,77.849,0.109
182.800,0.107,78.190,0.107
183.000,0.107,78.098,0.107
183.200,0.107,78.205,0.107
183.400,0.106,78.270,0.106
183.600,0.108,78.013,0.108
183.800,0.108,77.992,0.108
184.000,0.108,78.029,0.108
184.200,0.107,78.089,0.107
184.400,0.107,78.197,0.107
184.600,0.106,78.364,0.106
184.800,0.106,78.384,0.106
185.000,0.106,78.260,0.106
185.200,0.107,78.111,0.107
185.400,0.106,78.287,0.106
185.600,0.105,78.438,0.105
185.800,0.106,78.368,0.106
186.000,0.106,78.344,0.106
186.200,0.106,78.373,0.106
186.400,0.106,78.285,0.106
186.600,0.106,78.416,0.106
186.800,0.107,78.186,0.107
187.000,0.106,78.397,0.106
187.200,0.107,78.200,0.107
187.400,0.107,78.242,0.107
187.600,0.108,77.998,0.108
187.800,0.107,78.097,0.107
188.000,0.106,78.256,0.106
188.200,0.106,78.320,0.106
188.400,0.106,78.375,0.106
188.600,0.105,78.593,0.105
188.800,0.106,78.255,0.106
189.000,0.105,78.521,0.105
189.200,0.106,78.411,0.106
189.400,0.106,78.419,0.106
189.600,0.106,78.414,0.106
189.800,0.105,78.525,0.105
190.000,0.105,78.487,0.105
190.200,0.105,78.470,0.105
190.400,0.105,78.502,0.105
190.600,0.105,78.546,0.105
190.800,0.103,78.810,0.103
191.000,0.104,78.615,0.104
191.200,0.107,78.234,0.107
191.400,0.107,78.199,0.107
191.600,0.111,77.500,0.111
191.800,0.111,77.501,0.111
192.000,0.109,77.734,0.109
192.200,0.107,78.138,0.107
192.400,0.105,78.439,0.105
192.600,0.106,78.424,0.106
192.800,0.109,77.886,0.109
193.000,0.107,78.118,0.107
193.200,0.106,78.391,0.106
193.400,0.106,78.413,0.106
193.600,0.105,78.558,0.105
193.800,0.105,78.530,0.105
194.000,0.105,78.457,0.105
194.200,0.107,78.202,0.107
194.400,0.104,78.634,0.104
194.600,0.104,78.618,0.104
194.800,0.105,78.448,0.105
195.000,0.105,78.569,0.105
195.200,0.105,78.471,0.105
195.400,0.104,78.623,0.104
195.600,0.104,78.730,0.104
195.800,0.105,78.568,0.105
196.000,0.106,78.371,0.106
196.200,0.105,78.471,0.105
196.400,0.105,78.601,0.105
196.600,0.105,78.436,0.105
196.800,0.105,78.469,0.105
197.000,0.105,78.605,0.105
197.200,0.104,78.700,0.104
197.400,0.103,78.892,0.103
197.600,0.103,78.913,0.103
197.800,0.103,78.910,0.103
198.000,0.103,78.955,0.103
198.200,0.103,78.934,0.103
198.400,0.104,78.713,0.104
198.600,0.103,78.816,0.103
198.800,0.103,78.919,0.103
199.000,0.103,78.886,0.103
199.200,0.101,79.244,0.101
199.400,0.104,78.755,0.104
199.600,0.105,78.455,0.105
199.800,0.108,77.905,0.108
200.000,0.106,78.429,0.106
200.200,0.104,78.758,0.104
200.400,0.104,78.790,0.104
200.600,0.107,78.102,0.107
200.800,0.106,78.425,0.106
201.000,0.105,78.443,0.105
201.200,0.104,78.756,0.104
201.400,0.103,78.894,0.103
201.600,0.102,79.005,0.102
201.800,0.103,78.936,0.103
202.000,0.104,78.697,0.104
202.200,0.103,78.908,0.103
202.400,0.103,78.862,0.103
202.600,0.103,78.874,0.103
202.800,0.103,78.797,0.103
203.000,0.103,78.878,0.103
203.200,0.102,78.991,0.102
203.400,0.104,78.665,0.104
203.600,0.104,78.726,0.104
203.800,0.103,78.893,0.103
204.000,0.102,79.017,0.102
204.200,0.103,78.801,0.103
204.400,0.103,78.921,0.103
204.600,0.103,78.878,0.103
204.800,0.102,78.997,0.102
205.000,0.102,79.132,0.102
205.200,0.103,78.896,0.103
205.400,0.103,78.876,0.103
205.600,0.102,78.991,0.102
205.800,0.103,78.959,0.103
206.000,0.104,78.756,0.104
206.200,0.102,79.061,0.102
206.400,0.102,79.066,0.102
206.600,0.103,78.893,0.103
206.800,0.102,79.002,0.102
207.000,0.104,78.739,0.104
207.200,0.103,78.927,0.103
207.400,0.102,79.080,0.102
207.600,0.101,79.186,0.101
207.800,0.103,78.832,0.103
208.000,0.103,78.883,0.103
208.200,0.103,78.861,0.103
208.400,0.103,78.919,0.103
208.600,0.102,79.008,0.102
208.800,0.103,78.856,0.103
209.000,0.102,79.129,0.102
209.200,0.103,78.864,0.103
209.400,0.101,79.219,0.101
209.600,0.102,79.036,0.102
209.800,0.102,79.081,0.102
210.000,0.102,79.037,0.102
210.200,0.101,79.301,0.101
210.400,0.102,79.059,0.102
210.600,0.102,79.113,0.102
210.800,0.101,79.165,0.101
211.000,0.102,79.079,0.102
211.200,0.102,79.136,0.102
211.400,0.102,79.053,0.102
211.600,0.100,79.348,0.100
211.800,0.101,79.231,0.101
212.000,0.101,79.246,0.101
212.200,0.100,79.393,0.100
212.400,0.101,79.270,0.101
212.600,0.101,79.243,0.101
212.800,0.101,79.295,0.101
213.000,0.103,78.977,0.103
213.200,0.102,79.137,0.102
213.400,0.102,79.092,0.102
213.600,0.102,79.043,0.102
213.800,0.102,79.083,0.102
214.000,0.103,78.828,0.103
214.200,0.103,78.824,0.103
214.400,0.102,79.110,0.102
214.600,0.102,78.984,0.102
214.800,0.102,79.085,0.102
215.000,0.101,79.312,0.101
215.200,0.101,79.190,0.101
215.400,0.101,79.277,0.101
215.600,0.101,79.259,0.101
215.800,0.101,79.319,0.101
216.000,0.102,79.087,0.102
216.200,0.102,79.159,0.102
216.400,0.101,79.314,0.101
216.600,0.101,79.201,0.101
216.800,0.101,79.334,0.101
217.000,0.101,79.209,0.101
217.200,0.101,79.212,0.101
217.400,0.100,79.384,0.100
217.600,0.102,79.109,0.102
217.800,0.101,79.271,0.101
218.000,0.103,78.934,0.103
218.200,0.100,79.424,0.100
218.400,0.100,79.472,0.100
218.600,0.102,78.982,0.102
218.800,0.102,79.028,0.102
219.000,0.102,79.086,0.102
219.200,0.100,79.370,0.100
219.400,0.101,79.325,0.101
219.600,0.100,79.493,0.100
219.800,0.101,79.236,0.101
220.000,0.101,79.209,0.101
220.200,0.101,79.234,0.101
220.400,0.100,79.428,0.100
220.600,0.101,79.253,0.101
220.800,0.101,79.223,0.101
221.000,0.100,79.375,0.100
221.200,0.101,79.222,0.101
221.400,0.102,79.118,0.102
221.600,0.100,79.392,0.100
221.800,0.100,79.462,0.100
222.000,0.099,79.550,0.099
222.200,0.100,79.510,0.100
222.400,0.100,79.414,0.100
222.600,0.101,79.212,0.101
222.800,0.100,79.440,0.100
223.000,0.100,79.465,0.100
223.200,0.101,79.313,0.101
223.400,0.100,79.501,0.100
223.600,0.101,79.237,0.101
223.800,0.100,79.419,0.100
224.000,0.100,79.501,0.100
224.200,0.101,79.212,0.101
224.400,0.100,79.386,0.100
224.600,0.100,79.417,0.100
224.800,0.100,79.401,0.100
225.000,0.101,79.296,0.101
225.200,0.100,79.413,0.100
225.400,0.100,79.445,0.100
225.600,0.099,79.578,0.099
225.800,0.101,79.282,0.101
226.000,0.101,79.327,0.101
226.200,0.100,79.365,0.100
226.400,0.100,79.500,0.100
226.600,0.100,79.439,0.100
226.800,0.100,79.514,0.100
227.000,0.099,79.628,0.099
227.200,0.100,79.377,0.100
227.400,0.099,79.626,0.099
227.600,0.099,79.549,0.099
227.800,0.101,79.226,0.101
228.000,0.100,79.371,0.100
228.200,0.100,79.383,0.100
228.400,0.101,79.329,0.101
228.600,0.099,79.562,0.099
228.800,0.101,79.290,0.101
229.000,0.100,79.387,0.100
229.200,0.099,79.530,0.099
229.400,0.099,79.689,0.099
229.600,0.099,79.575,0.099
229.800,0.099,79.615,0.099
230.000,0.101,79.272,0.101
230.200,0.099,79.561,0.099
230.400,0.100,79.359,0.100
230.600,0.101,79.327,0.101
230.800,0.099,79.556,0.099
231.000,0.099,79.683,0.099
231.200,0.100,79.376,0.100
231.400,0.098,79.807,0.098
231.600,0.100,79.408,0.100
231.800,0.100,79.464,0.100
232.000,0.100,79.520,0.100
232.200,0.100,79.488,0.100
232.400,0.100,79.506,0.100
232.600,0.101,79.326,0.101
232.800,0.101,79.222,0.101
233.000,0.100,79.472,0.100
233.200,0.099,79.541,0.099
233.400,0.100,79.397,0.100
233.600,0.099,79.567,0.099
233.800,0.099,79.704,0.099
234.000,0.100,79.497,0.100
234.200,0.100,79.476,0.100
234.400,0.100,79.406,0.100
234.600,0.100,79.506,0.100
234.800,0.099,79.564,0.099
235.000,0.100,79.524,0.100
235.200,0.099,79.606,0.099
235.400,0.100,79.468,0.100
235.600,0.099,79.541,0.099
235.800,0.100,79.406,0.100
236.000,0.101,79.326,0.101
236.200,0.101,79.339,0.101
236.400,0.100,79.360,0.100
236.600,0.099,79.535,0.099
236.800,0.099,79.534,0.099
237.000,0.099,79.589,0.099
237.200,0.100,79.368,0.100
237.400,0.099,79.600,0.099
237.600,0.099,79.597,0.099
237.800,0.099,79.669,0.099
238.000,0.099,79.662,0.099
238.200,0.099,79.598,0.099
238.400,0.099,79.543,0.099
238.600,0.099,79.605,0.099
238.800,0.099,79.551,0.099
239.000,0.099,79.564,0.099
239.200,0.100,79.394,0.100
239.400,0.101,79.276,0.101
239.600,0.100,79.476,0.100
239.800,0.100,79.450,0.100
240.000,0.099,79.565,0.099
240.200,0.099,79.655,0.099
240.400,0.099,79.682,0.099
240.600,0.100,79.477,0.100
240.800,0.099,79.598,0.099
241.000,0.101,79.300,0.101
241.200,0.098,79.734,0.098
241.400,0.099,79.638,0.099
241.600,0.099,79.689,0.099
241.800,0.098,79.773,0.098
242.000,0.098,79.726,0.098
242.200,0.098,79.782,0.098
242.400,0.099,79.630,0.099
242.600,0.098,79.716,0.098
242.800,0.099,79.613,0.099
243.000,0.100,79.367,0.100
243.200,0.100,79.501,0.100
243.400,0.098,79.734,0.098
243.600,0.098,79.738,0.098
243.800,0.098,79.753,0.098
244.000,0.099,79.604,0.099
244.200,0.099,79.662,0.099
244.400,0.098,79.709,0.098
244.600,0.100,79.471,0.100
244.800,0.100,79.477,0.100
245.000,0.098,79.744,0.098
245.200,0.099,79.681,0.099
245.400,0.099,79.664,0.099
245.600,0.098,79.797,0.098
245.800,0.098,79.780,0.098
246.000,0.099,79.531,0.099
246.200,0.097,79.918,0.097
246.400,0.099,79.608,0.099
246.600,0.099,79.627,0.099
246.800,0.100,79.524,0.100
247.000,0.098,79.798,0.098
247.200,0.098,79.829,0.098
247.400,0.098,79.745,0.098
247.600,0.098,79.732,0.098
247.800,0.099,79.632,0.099
248.000,0.097,79.940,0.097
248.200,0.098,79.806,0.098
248.400,0.098,79.752,0.098
248.600,0.098,79.716,0.098
248.800,0.099,79.572,0.099
249.000,0.098,79.874,0.098
249.200,0.098,79.759,0.098
249.400,0.099,79.629,0.099
249.600,0.099,79.609,0.099
249.800,0.098,79.866,0.098
250.000,0.099,79.662,0.099
250.200,0.098,79.715,0.098
250.400,0.099,79.661,0.099
250.600,0.099,79.674,0.099
250.800,0.099,79.539,0.099
251.000,0.099,79.559,0.099
251.200,0.098,79.749,0.098
251.400,0.099,79.639,0.099
251.600,0.097,79.903,0.097
251.800,0.098,79.848,0.098
252.000,0.098,79.887,0.098
252.200,0.098,79.747,0.098
252.400,0.098,79.799,0.098
252.600,0.097,79.923,0.097
252.800,0.098,79.738,0.098
253.000,0.098,79.891,0.098
253.200,0.099,79.688,0.099
253.400,0.098,79.729,0.098
253.600,0.097,79.921,0.097
253.800,0.098,79.714,0.098
254.000,0.098,79.821,0.098
254.200,0.098,79.820,0.098
254.400,0.098,79.728,0.098
254.600,0.099,79.673,0.099
254.800,0.097,79.897,0.097
255.000,0.099,79.556,0.099
255.200,0.099,79.536,0.099
255.400,0.098,79.870,0.098
255.600,0.099,79.642,0.099
255.800,0.098,79.746,0.098
256.000,0.099,79.626,0.099
256.200,0.098,79.754,0.098
256.400,0.099,79.592,0.099
256.600,0.099,79.676,0.099
256.800,0.097,79.980,0.097
257.000,0.098,79.726,0.098
257.200,0.098,79.858,0.098
257.400,0.098,79.722,0.098
257.600,0.098,79.767,0.098
257.800,0.098,79.751,0.098
258.000,0.099,79.698,0.099
258.200,0.099,79.653,0.099
258.400,0.098,79.737,0.098
258.600,0.097,79.925,0.097
258.800,0.097,79.922,0.097
259.000,0.096,80.084,0.096
259.200,0.097,79.939,0.097
259.400,0.097,79.985,0.097
259.600,0.097,80.002,0.097
259.800,0.097,79.953,0.097
260.000,0.098,79.809,0.098
260.200,0.098,79.829,0.098
260.400,0.098,79.887,0.098
260.600,0.098,79.866,0.098
260.800,0.098,79.717,0.098
261.000,0.096,80.182,0.096
261.200,0.097,79.902,0.097
261.400,0.097,79.970,0.097
261.600,0.098,79.729,0.098
261.800,0.098,79.839,0.098
262.000,0.098,79.868,0.098
262.200,0.098,79.741,0.098
262.400,0.097,79.957,0.097
262.600,0.097,79.924,0.097
262.800,0.098,79.868,0.098
263.000,0.099,79.643,0.099
263.200,0.098,79.810,0.098
263.400,0.096,80.118,0.096
263.600,0.097,80.070,0.097
263.800,0.097,79.936,0.097
264.000,0.097,79.936,0.097
264.200,0.098,79.733,0.098
264.400,0.100,79.404,0.100
264.600,0.100,79.384,0.100
264.800,0.099,79.697,0.099
265.000,0.098,79.784,0.098
265.200,0.097,80.031,0.097
265.400,0.097,79.964,0.097
265.600,0.097,79.994,0.097
265.800,0.098,79.853,0.098
266.000,0.097,79.951,0.097
266.200,0.097,79.984,0.097
266.400,0.097,79.961,0.097
266.600,0.097,79.976,0.097
266.800,0.098,79.889,0.098
267.000,0.097,79.982,0.097
267.200,0.096,80.124,0.096
267.400,0.096,80.118,0.096
267.600,0.097,80.062,0.097
267.800,0.097,79.981,0.097
268.000,0.097,79.975,0.097
268.200,0.097,79.930,0.097
268.400,0.097,79.970,0.097
268.600,0.096,80.164,0.096
268.800,0.096,80.097,0.096
269.000,0.096,80.259,0.096
269.200,0.097,79.978,0.097
269.400,0.098,79.876,0.098
269.600,0.098,79.862,0.098
269.800,0.097,80.025,0.097
270.000,0.096,80.175,0.096
270.200,0.097,79.957,0.097
270.400,0.097,79.981,0.097
270.600,0.097,79.946,0.097
270.800,0.097,79.995,0.097
271.000,0.097,80.040,0.097
271.200,0.099,79.699,0.099
271.400,0.098,79.857,0.098
271.600,0.096,80.108,0.096
271.800,0.098,79.805,0.098
272.000,0.097,80.064,0.097
272.200,0.098,79.754,0.098
272.400,0.098,79.737,0.098
272.600,0.096,80.153,0.096
272.800,0.096,80.113,0.096
273.000,0.097,80.074,0.097
273.200,0.097,80.004,0.097
273.400,0.096,80.125,0.096
273.600,0.097,80.062,0.097
273.800,0.098,79.776,0.098
274.000,0.097,80.004,0.097
274.200,0.097,80.015,0.097
274.400,0.097,79.939,0.097
274.600,0.096,80.094,0.096
274.800,0.096,80.248,0.096
275.000,0.096,80.111,0.096
275.200,0.096,80.096,0.096
275.400,0.096,80.180,0.096
275.600,0.096,80.149,0.096
275.800,0.099,79.576,0.099
276.000,0.098,79.865,0.098
276.200,0.097,80.054,0.097
276.400,0.097,80.028,0.097
276.600,0.097,80.067,0.097
276.800,0.098,79.887,0.098
277.000,0.097,79.956,0.097
277.200,0.098,79.784,0.098
277.400,0.097,79.915,0.097
277.600,0.097,79.945,0.097
277.800,0.097,79.939,0.097
278.000,0.095,80.303,0.095
278.200,0.096,80.080,0.096
278.400,0.096,80.197,0.096
278.600,0.096,80.163,0.096
278.800,0.097,80.059,0.097
279.000,0.097,80.058,0.097
279.200,0.096,80.197,0.096
279.400,0.096,80.107,0.096
279.600,0.096,80.126,0.096
279.800,0.096,80.162,0.096
280.000,0.097,79.917,0.097
280.200,0.097,80.068,0.097
280.400,0.098,79.878,0.098
280.600,0.097,79.989,0.097
280.800,0.097,79.976,0.097
281.000,0.096,80.168,0.096
281.200,0.097,80.047,0.097
281.400,0.097,80.008,0.097
281.600,0.097,79.934,0.097
281.800,0.096,80.241,0.096
282.000,0.097,80.021,0.097
282.200,0.096,80.137,0.096
282.400,0.096,80.132,0.096
282.600,0.097,79.969,0.097
282.800,0.097,80.001,0.097
283.000,0.096,80.122,0.096
283.200,0.096,80.079,0.096
283.400,0.097,80.071,0.097
283.600,0.096,80.148,0.096
283.800,0.096,80.256,0.096
284.000,0.097,79.973,0.097
284.200,0.096,80.158,0.096
284.400,0.096,80.221,0.096
284.600,0.097,80.066,0.097
284.800,0.096,80.251,0.096
285.000,0.096,80.125,0.096
285.200,0.096,80.152,0.096
285.400,0.096,80.126,0.096
285.600,0.096,80.216,0.096
285.800,0.097,80.051,0.097
286.000,0.095,80.270,0.095
286.200,0.097,79.959,0.097
286.400,0.095,80.269,0.095
286.600,0.097,79.897,0.097
286.800,0.095,80.367,0.095
287.000,0.097,80.017,0.097
287.200,0.097,80.015,0.097
287.400,0.097,79.939,0.097
287.600,0.097,80.022,0.097
287.800,0.097,79.924,0.097
288.000,0.098,79.725,0.098
288.200,0.096,80.116,0.096
288.400,0.097,79.904,0.097
288.600,0.097,79.901,0.097
288.800,0.098,79.809,0.098
289.000,0.096,80.156,0.096
289.200,0.097,79.991,0.097
289.400,0.096,80.201,0.096
289.600,0.096,80.238,0.096
289.800,0.097,79.893,0.097
290.000,0.096,80.244,0.096
290.200,0.096,80.187,0.096
290.400,0.095,80.273,0.095
290.600,0.095,80.356,0.095
290.800,0.096,80.245,0.096
291.000,0.097,80.034,0.097
291.200,0.096,80.159,0.096
291.400,0.096,80.224,0.096
291.600,0.096,80.235,0.096
291.800,0.096,80.234,0.096
292.000,0.094,80.487,0.094
292.200,0.096,80.121,0.096
292.400,0.096,80.247,0.096
292.600,0.095,80.394,0.095
292.800,0.096,80.194,0.096
293.000,0.096,80.101,0.096
293.200,0.095,80.299,0.095
293.400,0.097,79.965,0.097
293.600,0.096,80.197,0.096
293.800,0.096,80.223,0.096
294.000,0.097,79.952,0.097
294.200,0.097,79.970,0.097
294.400,0.096,80.196,0.096
294.600,0.095,80.386,0.095
294.800,0.096,80.095,0.096
295.000,0.095,80.369,0.095
295.200,0.096,80.256,0.096
295.400,0.096,80.079,0.096
295.600,0.096,80.251,0.096
295.800,0.097,80.029,0.097
296.000,0.095,80.298,0.095
296.200,0.095,80.306,0.095
296.400,0.096,80.202,0.096
296.600,0.096,80.228,0.096
296.800,0.096,80.221,0.096
297.000,0.096,80.094,0.096
297.200,0.096,80.156,0.096
297.400,0.096,80.201,0.096
297.600,0.096,80.255,0.096
297.800,0.095,80.385,0.095
298.000,0.096,80.204,0.096
298.200,0.096,80.226,0.096
298.400,0.095,80.277,0.095
298.600,0.096,80.247,0.096
298.800,0.096,80.155,0.096
299.000,0.096,80.089,0.096
299.200,0.097,79.970,0.097
299.400,0.096,80.204,0.096
299.600,0.096,80.214,0.096
299.800,0.096,80.129,0.096
300.000,0.097,80.057,0.097
300.200,0.095,80.395,0.095
300.400,0.096,80.153,0.096
300.600,0.095,80.437,0.095
300.800,0.096,80.120,0.096
301.000,0.097,79.895,0.097
301.200,0.096,80.100,0.096
301.400,0.095,80.396,0.095
301.600,0.096,80.129,0.096
301.800,0.097,80.075,0.097
302.000,0.095,80.287,0.095
302.200,0.094,80.457,0.094
302.400,0.096,80.147,0.096
302.600,0.096,80.258,0.096
302.800,0.097,80.064,0.097
303.000,0.096,80.112,0.096
303.200,0.097,80.049,0.097
303.400,0.096,80.102,0.096
303.600,0.097,79.983,0.097
303.800,0.096,80.182,0.096
304.000,0.097,80.026,0.097
304.200,0.096,80.146,0.096
304.400,0.096,80.165,0.096
304.600,0.095,80.343,0.095
304.800,0.095,80.277,0.095
305.000,0.096,80.255,0.096
305.200,0.095,80.328,0.095
305.400,0.095,80.366,0.095
305.600,0.097,79.969,0.097
305.800,0.095,80.289,0.095
306.000,0.096,80.225,0.096
306.200,0.096,80.242,0.096
306.400,0.096,80.137,0.096
306.600,0.095,80.372,0.095
306.800,0.096,80.233,0.096
307.000,0.096,80.242,0.096
307.200,0.097,80.039,0.097
307.400,0.096,80.229,0.096
307.600,0.096,80.203,0.096
307.800,0.095,80.357,0.095
308.000,0.096,80.214,0.096
308.200,0.096,80.166,0.096
308.400,0.095,80.414,0.095
308.600,0.096,80.230,0.096
308.800,0.095,80.423,0.095
309.000,0.096,80.209,0.096
309.200,0.096,80.166,0.096
309.400,0.095,80.273,0.095
309.600,0.094,80.534,0.094
309.800,0.097,80.062,0.097
310.000,0.095,80.434,0.095
310.200,0.096,80.227,0.096
310.400,0.096,80.109,0.096
310.600,0.096,80.195,0.096
310.800,0.096,80.246,0.096
311.000,0.096,80.255,0.096
311.200,0.095,80.427,0.095
311.400,0.095,80.297,0.095
311.600,0.096,80.260,0.096
311.800,0.097,79.956,0.097
312.000,0.096,80.155,0.096
312.200,0.095,80.409,0.095
312.400,0.096,80.187,0.096
312.600,0.097,80.031,0.097
312.800,0.096,80.158,0.096
313.000,0.095,80.262,0.095
313.200,0.095,80.327,0.095
313.400,0.095,80.272,0.095
313.600,0.096,80.177,0.096
313.800,0.095,80.384,0.095
314.000,0.096,80.194,0.096
314.200,0.096,80.155,0.096
314.400,0.096,80.160,0.096
314.600,0.096,80.144,0.096
314.800,0.095,80.432,0.095
315.000,0.095,80.376,0.095
315.200,0.096,80.203,0.096
315.400,0.096,80.171,0.096
315.600,0.095,80.308,0.095
315.800,0.097,80.017,0.097
316.000,0.095,80.274,0.095
316.200,0.096,80.199,0.096
316.400,0.096,80.111,0.096
316.600,0.095,80.309,0.095
316.800,0.096,80.135,0.096
317.000,0.096,80.235,0.096
317.200,0.095,80.284,0.095
317.400,0.095,80.266,0.095
317.600,0.095,80.382,0.095
317.800,0.095,80.440,0.095
318.000,0.095,80.375,0.095
318.200,0.095,80.363,0.095
318.400,0.095,80.270,0.095
318.600,0.095,80.265,0.095
318.800,0.096,80.199,0.096
319.000,0.095,80.425,0.095
319.200,0.096,80.107,0.096
319.400,0.095,80.263,0.095
319.600,0.096,80.248,0.096
319.800,0.096,80.194,0.096
320.000,0.095,80.344,0.095
320.200,0.095,80.274,0.095
320.400,0.095,80.285,0.095
320.600,0.096,80.214,0.096
320.800,0.095,80.412,0.095
321.000,0.095,80.337,0.095
321.200,0.096,80.191,0.096
321.400,0.095,80.408,0.095
321.600,0.095,80.307,0.095
321.800,0.096,80.157,0.096
322.000,0.094,80.454,0.094
322.200,0.095,80.375,0.095
322.400,0.096,80.200,0.096
322.600,0.095,80.270,0.095
322.800,0.095,80.324,0.095
323.000,0.096,80.185,0.096
323.200,0.096,80.085,0.096
323.400,0.095,80.383,0.095
323.600,0.096,80.146,0.096
323.800,0.096,80.199,0.096
324.000,0.094,80.457,0.094
324.200,0.097,79.981,0.097
324.400,0.095,80.276,0.095
324.600,0.097,80.072,0.097
324.800,0.095,80.350,0.095
325.000,0.096,80.184,0.096
325.200,0.096,80.167,0.096
325.400,0.096,80.149,0.096
325.600,0.094,80.472,0.094
325.800,0.094,80.526,0.094
326.000,0.096,80.254,0.096
326.200,0.094,80.472,0.094
326.400,0.096,80.242,0.096
326.600,0.096,80.261,0.096
326.800,0.096,80.093,0.096
327.000,0.095,80.320,0.095
327.200,0.095,80.298,0.095
327.400,0.096,80.161,0.096
327.600,0.096,80.199,0.096
327.800,0.094,80.462,0.094
328.000,0.095,80.294,0.095
328.200,0.096,80.227,0.096
328.400,0.097,80.005,0.097
328.600,0.096,80.180,0.096
328.800,0.095,80.261,0.095
329.000,0.096,80.209,0.096
329.200,0.097,80.038,0.097
329.400,0.096,80.218,0.096
329.600,0.096,80.192,0.096
329.800,0.095,80.321,0.095
330.000,0.095,80.345,0.095
330.200,0.096,80.250,0.096
330.400,0.096,80.229,0.096
330.600,0.096,80.260,0.096
330.800,0.097,80.065,0.097
331.000,0.095,80.335,0.095
331.200,0.094,80.515,0.094
331.400,0.095,80.329,0.095
331.600,0.095,80.439,0.095
331.800,0.096,80.251,0.096
332.000,0.095,80.290,0.095
332.200,0.095,80.358,0.095
332.400,0.095,80.322,0.095
332.600,0.095,80.425,0.095
332.800,0.095,80.416,0.095
333.000,0.094,80.494,0.094
333.200,0.094,80.453,0.094
333.400,0.095,80.286,0.095
333.600,0.094,80.482,0.094
